wavelength	flux	sigma	band
1.235	63.212	2.315	2MASS_J
1.662	81.783	3.044	2MASS_H
2.159	80.645	3.218	2MASS_Ks
3.353	43.623	2.571	WISE_w1
4.603	52.868	3.329	WISE_w2
11.561	460.419	24.785	WISE_w3
22.088	2204.094	73.705	WISE_w4
70.000	50720.000	3457.426	Herschel_PACS_70
100.000	55020.000	3737.499	Herschel_PACS_100
160.000	34970.000	2356.619	Herschel_PACS_160
250.000	12330.000	970.862	Herschel_SPIRE_250
350.000	4396.000	346.606	Herschel_SPIRE_350
500.000	1340.000	103.586	Herschel_SPIRE_500
5.280	64.204	5.337	0
5.310	61.455	4.205	0
5.340	69.541	4.528	0
5.370	85.713	4.528	0
5.400	102.371	4.043	0
5.430	101.401	4.367	0
5.460	91.697	4.205	0
5.490	91.374	4.205	0
5.520	94.770	3.558	0
5.550	79.730	4.043	0
5.580	73.261	3.720	0
5.610	78.274	4.043	0
5.640	78.598	3.881	0
5.670	90.889	3.720	0
5.700	97.843	3.881	0
5.730	93.314	3.720	0
5.760	102.048	3.396	0
5.790	118.705	3.881	0
5.820	133.745	3.881	0
5.850	143.449	3.396	0
5.880	147.168	3.558	0
5.910	143.449	3.881	0
5.940	136.656	3.881	0
5.970	121.293	4.043	0
6.000	112.398	3.881	0
6.030	115.956	4.043	0
6.060	119.514	4.690	0
6.090	116.117	3.720	0
6.120	117.411	3.720	0
6.150	128.247	3.720	0
6.180	148.462	3.881	0
6.220	168.839	3.558	0
6.250	174.338	3.558	0
6.280	181.292	3.396	0
6.310	216.386	3.234	0
6.340	292.558	3.558	0
6.370	410.131	4.043	0
6.400	492.286	4.043	0
6.430	490.993	4.205	0
6.460	432.125	3.558	0
6.490	378.271	3.720	0
6.520	325.549	4.205	0
6.550	292.720	4.690	0
6.580	261.830	4.852	0
6.610	237.410	4.852	0
6.640	216.063	4.367	0
6.670	204.904	4.205	0
6.700	199.082	4.205	0
6.730	196.009	4.852	0
6.760	196.656	4.528	0
6.790	202.154	4.690	0
6.820	211.858	4.690	0
6.850	216.709	5.013	0
6.880	216.871	5.499	0
6.910	221.561	6.631	0
6.940	215.739	6.145	0
6.970	212.020	5.499	0
7.000	212.828	6.469	0
7.030	221.723	6.145	0
7.060	226.575	5.984	0
7.090	239.998	5.499	0
7.120	279.135	5.660	0
7.150	296.277	5.013	0
7.180	351.587	5.337	0
7.210	427.920	5.660	0
7.240	353.851	6.145	0
7.270	305.657	6.469	0
7.300	310.994	7.439	0
7.330	312.450	6.792	0
7.360	308.245	6.954	0
7.390	299.997	5.984	0
7.420	327.975	6.631	0
7.460	328.784	6.469	0
7.490	354.821	6.954	0
7.520	331.048	5.013	0
7.580	417.732	4.528	0
7.640	495.197	4.852	0
7.700	589.806	5.499	0
7.760	708.349	5.175	0
7.820	825.113	4.690	0
7.880	877.997	4.367	0
7.940	846.784	4.528	0
8.000	836.434	4.528	0
8.060	836.919	4.367	0
8.120	804.736	4.043	0
8.180	731.314	3.720	0
8.240	644.145	3.881	0
8.300	571.693	4.043	0
8.360	513.957	3.558	0
8.420	497.461	3.558	0
8.480	501.828	2.911	0
8.540	496.168	3.234	0
8.600	494.874	3.396	0
8.660	495.683	3.396	0
8.730	503.930	3.073	0
8.790	526.248	3.073	0
8.850	543.714	3.558	0
8.910	520.588	2.911	0
8.970	456.545	2.911	0
9.030	378.595	3.234	0
9.090	312.773	3.396	0
9.150	259.243	3.234	0
9.210	223.502	3.073	0
9.270	204.095	3.396	0
9.330	179.028	3.234	0
9.390	156.548	3.234	0
9.450	145.389	3.234	0
9.510	131.805	3.234	0
9.570	125.983	2.911	0
9.630	118.382	2.911	0
9.690	109.325	2.749	0
9.750	102.371	2.749	0
9.810	97.196	2.911	0
9.870	100.915	2.749	0
9.930	113.692	2.749	0
10.000	111.266	2.749	0
10.060	96.872	2.426	0
10.120	92.668	2.264	0
10.180	91.374	2.426	0
10.240	89.918	2.264	0
10.300	91.212	2.749	0
10.360	94.608	2.588	0
10.420	99.298	2.588	0
10.480	101.401	2.426	0
10.540	104.150	2.588	0
10.600	107.061	2.749	0
10.660	112.560	2.911	0
10.720	119.514	2.749	0
10.780	128.085	2.911	0
10.840	141.832	2.749	0
10.900	153.314	2.588	0
10.960	157.842	2.749	0
11.020	164.796	2.749	0
11.080	170.942	2.911	0
11.140	174.014	3.234	0
11.210	182.262	3.558	0
11.270	203.772	3.234	0
11.330	238.542	3.234	0
11.390	266.197	3.073	0
11.450	313.582	2.911	0
11.510	485.332	3.720	0
11.570	716.435	3.558	0
11.630	760.262	3.881	0
11.690	672.931	3.881	0
11.750	571.693	3.720	0
11.810	499.564	3.558	0
11.870	453.634	3.396	0
11.930	430.831	3.234	0
11.990	411.748	3.396	0
12.050	409.807	3.558	0
12.110	414.174	3.558	0
12.170	427.435	3.558	0
12.230	456.707	3.396	0
12.290	491.963	3.720	0
12.350	519.779	3.558	0
12.410	537.084	3.396	0
12.480	542.421	3.234	0
12.540	544.361	3.396	0
12.600	564.577	3.234	0
12.660	605.331	3.073	0
12.720	637.352	3.396	0
12.780	655.789	3.558	0
12.840	697.028	3.720	0
12.900	750.397	4.043	0
12.960	796.327	3.558	0
13.020	848.725	3.720	0
13.080	911.312	3.881	0
13.140	1184.786	4.205	0
13.200	1678.205	4.367	0
13.260	1471.846	4.043	0
13.320	800.855	4.043	0
13.380	649.967	4.205	0
13.440	623.929	4.205	0
13.500	623.929	4.043	0
13.560	628.134	4.205	0
13.620	632.501	4.528	0
13.680	625.385	4.205	0
13.750	631.207	4.528	0
13.810	636.867	5.175	0
13.870	635.250	5.013	0
13.930	651.907	4.852	0
13.990	659.347	5.337	0
14.050	656.759	5.499	0
14.110	646.409	5.499	0
14.170	636.059	6.145	0
14.230	627.487	5.984	0
14.320	613.831	3.234	0
14.410	622.935	3.474	0
14.490	630.841	3.234	0
14.580	645.816	3.354	0
14.660	671.931	3.953	0
14.750	676.244	4.313	0
14.830	664.384	3.953	0
14.920	637.550	3.833	0
15.000	631.560	3.953	0
15.090	647.733	3.594	0
15.170	658.514	3.234	0
15.250	658.394	3.594	0
15.340	656.597	2.875	0
15.420	658.155	2.875	0
15.510	656.957	2.875	0
15.590	662.108	2.995	0
15.680	664.264	2.995	0
15.760	671.332	2.995	0
15.850	689.182	3.115	0
15.930	727.876	4.073	0
16.020	833.415	4.672	0
16.100	791.127	4.193	0
16.190	737.459	4.073	0
16.270	732.068	4.432	0
16.360	733.865	4.193	0
16.440	740.095	3.833	0
16.520	752.553	3.833	0
16.610	765.371	3.594	0
16.690	783.101	3.354	0
16.780	819.519	3.474	0
16.860	891.516	3.953	0
16.950	948.179	4.432	0
17.030	930.449	4.792	0
17.120	895.110	4.313	0
17.200	910.324	4.672	0
17.290	929.850	5.151	0
17.370	932.126	4.792	0
17.460	964.711	4.672	0
17.540	1067.016	4.792	0
17.630	1052.640	4.193	0
17.710	1010.832	4.193	0
17.800	1004.722	4.073	0
17.880	1018.259	4.313	0
17.960	1015.863	4.912	0
18.050	985.196	5.151	0
18.130	977.649	4.672	0
18.220	982.201	5.391	0
18.300	999.331	6.469	0
18.390	1028.561	6.469	0
18.470	1032.275	5.031	0
18.560	1017.061	5.031	0
18.640	1017.780	5.031	0
18.730	1032.275	4.672	0
18.810	1056.474	4.432	0
18.900	1076.240	5.151	0
18.980	1083.428	5.151	0
19.070	1102.834	5.511	0
19.150	1159.018	6.469	0
19.230	1263.360	7.547	0
19.320	1455.392	8.505	0
19.400	1234.370	8.505	0
19.490	1209.931	8.026	0
19.570	1254.615	7.787	0
19.660	1290.913	7.068	0
19.740	1271.147	5.511	0
19.830	1300.976	8.266	0
19.910	1315.471	6.229	0
20.000	1381.478	7.906	0
20.080	1372.014	7.427	0
20.170	1417.776	6.948	0
20.250	1424.844	7.906	0
20.340	1472.642	9.584	0
20.420	1461.262	6.229	0
20.590	1555.900	7.188	0
20.760	1603.818	6.709	0
20.930	1689.831	5.870	0
21.100	1749.369	6.110	0
21.270	1821.366	6.948	0
21.440	1903.665	7.308	0
21.610	1949.906	6.948	0
21.770	2025.497	7.308	0
21.940	2103.244	8.146	0
22.110	2131.037	7.427	0
22.280	2234.659	8.985	0
22.450	2303.661	7.667	0
22.620	2378.893	7.667	0
22.790	2414.592	7.308	0
22.960	2459.395	5.750	0
23.130	2550.080	6.110	0
23.300	2664.604	6.709	0
23.470	2738.638	6.110	0
23.640	2794.702	5.630	0
23.810	2868.256	6.110	0
23.980	2955.587	5.870	0
24.150	3051.902	6.469	0
24.320	3151.692	7.308	0
24.480	3247.528	5.990	0
24.650	3316.769	8.026	0
24.820	3416.199	8.026	0
24.990	3497.900	7.667	0
25.160	3584.991	8.865	0
25.330	3676.035	8.146	0
25.500	3751.506	9.584	0
25.670	3888.552	8.146	0
25.840	3990.018	12.818	0
26.010	4097.475	10.662	0
26.180	4159.289	10.422	0
26.350	4262.313	9.703	0
26.520	4406.187	8.505	0
26.690	4601.812	8.386	0
26.860	4720.410	9.703	0
27.020	4785.458	10.782	0
27.190	4904.295	10.422	0
27.360	5044.935	11.261	0
27.530	5154.547	12.578	0
27.700	5241.998	13.657	0
27.870	5391.862	14.735	0
28.040	5517.287	13.896	0
28.210	5778.680	18.209	0
28.380	5874.037	17.011	0
28.550	5992.634	13.417	0
28.720	6142.738	14.855	0
28.890	6254.986	12.578	0
29.060	6410.720	14.495	0
29.230	6542.973	15.334	0
29.400	6737.042	15.933	0
29.570	6862.467	15.933	0
29.730	6987.893	15.693	0
29.900	7169.742	15.693	0
30.070	7350.752	16.771	0
30.240	7434.250	17.969	0
30.410	7768.239	17.610	0
30.580	7719.841	23.240	0
30.750	7996.089	22.402	0
30.920	8202.975	22.042	0
31.090	8280.123	22.521	0
31.260	8457.181	24.079	0
31.430	8569.189	21.683	0
31.600	8871.073	22.761	0
31.770	9038.667	25.636	0
31.940	9147.441	25.397	0
32.110	9275.741	28.631	0
32.270	9640.398	31.866	0
32.440	9848.602	32.464	0
32.610	10027.456	36.538	0
32.780	10009.607	43.366	0
32.950	9983.371	48.517	0
33.120	10497.652	46.960	0
33.290	11173.057	51.632	0
33.460	11465.717	46.481	0
33.630	11356.464	45.882	0
33.800	11580.481	44.324	0
33.970	11959.992	43.965	0
34.140	12236.240	46.840	0
34.310	12119.799	49.236	0
34.480	12509.612	58.700	0
34.650	12999.455	65.648	0
34.820	12964.475	66.606	0
34.980	13208.497	71.039	0
35.150	13211.253	66.966	0
35.320	12854.622	60.616	0
35.490	13577.706	57.382	0
35.660	14097.617	56.424	0
35.830	14352.302	57.861	0
36.000	14460.477	58.101	0
36.170	14480.363	59.179	0
36.340	14372.907	58.460	0
#The 2MASS and WISE photometric SED flux densities are measured by Ruancun Li.
#The Herschel photometry is provided by Chu et al. (2017).
#The SED is in the observed frame.
#The WISE W3 and W4 bands are corrected for the blue vs. red calibration discrepancy.
#The Herschel data is not color corrected.
#The calibration uncertainty 3%, 3%, and 5% for 2MASS, WISE, and Herschel data are included in the uncertainty for detected sources.
#The wavelength is in micron.
#The flux is in mJy.
#The sigma equals -1 for upperlimit and positive value (mJy) for normal uncertaintie.
#This SED is generate by SGJY in KIAA-PKU at 2018-02-09.
